#HEIGHT=  2504
#WIDTH =  3326
#TIME  =  0.000000
#          #
#   1 X_IMAGE         Object position along x                         [pixel]
#   2 Y_IMAGE         Object position along y                         [pixel]
#   3 MAG_APER        Fixed aperture magnitude vector                 [mag]
#   4 FWHM_IMAGE      FWHM assuming a gaussian core                   [pixel]
#   5 FLAGS           Extraction flags
#   6 CLASS_STAR      S/G classifier output
#   7 ELONGATION      A_IMAGE/B_IMAGE
#   8 ELLIPTICITY     1 - B_IMAGE/A_IMAGE
#   9 A_IMAGE         Profile RMS along major axis                    [pixel]
#  10 B_IMAGE         Profile RMS along minor axis                    [pixel]
#  11 THETA_IMAGE     Position angle (CCW/x)                          [deg]
  1552.348     24.189  -1.1457     9.27 000  0.03    1.206    0.171     4.12     3.42  47.2
  1482.522      8.315  -1.2911     9.73 008  0.03    1.288    0.223     4.25     3.30  29.6
  1215.448      7.961   0.5950     7.78 000  0.00    1.442    0.307     1.95     1.35  76.8
  1915.903      8.007   1.0917     5.48 000  0.00    1.496    0.332     1.13     0.75 -75.2
  2265.735      3.721   0.2261     7.73 008  0.00    1.311    0.237     2.22     1.69   2.2
  1321.684     69.713  -2.2364    12.65 000  0.03    1.182    0.154     5.44     4.60  17.0
  2828.949     50.306  -0.1023     9.48 000  0.00    1.184    0.155     3.05     2.58  78.8
   740.478     42.763   0.5216     9.45 000  0.00    1.454    0.312     2.39     1.64  79.5
  1386.076     49.242   0.3438     7.17 000  0.00    1.428    0.300     2.16     1.51  72.6
  1813.493     56.776   0.3236     7.92 000  0.00    1.421    0.296     2.33     1.64  60.1
   353.182    131.857  -0.5055    14.02 000  0.00    1.174    0.148     4.67     3.98  33.8
   119.589    110.702   1.1043     6.29 000  0.00    2.785    0.641     1.76     0.63  63.7
  3167.833    132.095   0.0767     8.44 000  0.00    1.105    0.095     2.54     2.30  35.5
  1584.831    157.886  -1.1842    10.58 000  0.02    1.257    0.204     4.78     3.80  22.6
  1081.481    170.201  -1.5736    11.03 000  0.05    1.145    0.126     4.75     4.15  30.5
  1980.377    147.097   0.7177     6.33 000  0.00    1.059    0.056     1.49     1.41 -57.5
  1406.343    151.732   0.6309     6.33 000  0.00    1.299    0.230     1.74     1.34  88.1
  2069.316    158.067   0.6503     7.55 000  0.00    1.122    0.109     1.68     1.50  70.5
  3025.704    181.609   0.8548     7.95 000  0.00    1.734    0.423     1.75     1.01  -0.9
   949.212    219.161   0.1141     9.39 000  0.00    1.392    0.281     2.88     2.07  79.3
  1288.303    249.721   0.4304     8.32 000  0.00    1.495    0.331     2.22     1.49  82.4
   347.544    265.433   1.1220     7.22 000  0.00    3.002    0.667     2.09     0.70 -70.1
  1268.930    258.639   1.0774     5.34 000  0.04    1.411    0.292     1.07     0.75  74.3
  1491.064    297.678   1.0338     5.92 000  0.00    1.557    0.358     1.24     0.80  78.7
  1010.362    391.084  -1.3643    10.51 000  0.03    1.158    0.136     4.42     3.82  25.0
  2593.008    431.726  -0.5169     9.04 000  0.00    1.167    0.143     3.24     2.78  52.6
  1068.862    432.335  -0.0727     7.93 000  0.00    1.358    0.264     2.65     1.95  80.3
  2025.529    448.424  -0.9359     8.54 000  0.03    1.235    0.190     3.82     3.09  50.3
  2430.200    431.843   0.4464     8.66 000  0.00    1.263    0.208     2.28     1.80  29.6
  1628.891    445.669   0.7671     7.29 000  0.00    1.380    0.275     1.61     1.17  60.3
  1534.684    455.225   0.5628     6.31 000  0.00    1.220    0.181     1.65     1.35  78.7
  1891.921    466.065   0.4000     6.86 000  0.00    1.151    0.131     1.81     1.58  43.7
  2503.427    515.344   0.1193     8.40 000  0.00    1.222    0.182     2.50     2.05  30.1
  2723.536    542.848  -0.1821     9.36 000  0.00    1.187    0.158     3.11     2.62  41.8
  1573.449    538.520   0.6621     6.44 000  0.00    1.078    0.073     1.54     1.43  21.6
  1087.013    536.821   1.0461     5.09 000  0.00    1.233    0.189     0.95     0.77  89.1
  1912.517    710.599  -0.9302     8.67 000  0.03    1.083    0.076     3.55     3.28  35.0
  1493.774   1016.985   0.9731     6.27 000  0.00    1.481    0.325     1.28     0.86  61.5
  2024.499   1133.792   1.1569     5.13 000  0.00    1.370    0.270     1.01     0.74   1.8
  3130.498   1214.377   0.8772     6.21 000  0.00    1.439    0.305     1.45     1.01  12.6
   363.154   1235.406   0.8425     9.06 000  0.00    1.526    0.345     1.87     1.23 -36.7
  2297.806   1486.010   0.3951     8.04 000  0.00    1.326    0.246     2.17     1.64  24.3
   123.254   2142.337   0.9425     5.02 000  0.00    1.148    0.129     1.16     1.01 -12.0
   808.498   2275.601   1.1447     5.27 000  0.00    1.256    0.204     0.99     0.79  89.6
  3043.898   2253.350   1.1181     5.36 000  0.00    1.404    0.288     1.07     0.76 -74.4
   601.614   2245.612   1.1193     5.50 000  0.00    1.513    0.339     1.14     0.75  29.7
  2230.105   1772.611  -0.5320     9.84 000  0.00    1.151    0.131     3.54     3.08  39.4
  2096.708   1770.088   1.1593     5.37 000  0.00    2.031    0.508     1.29     0.63  25.1
  1464.701   1767.432   0.5070     7.95 000  0.00    1.380    0.276     2.05     1.48  28.2
  1850.328   1964.974   0.1148     7.85 000  0.00    1.118    0.106     2.43     2.17  28.6
  2526.414   1817.477   0.3207     7.47 000  0.00    1.156    0.135     2.14     1.85  69.5
  3280.363   1772.630  -0.9880    11.63 000  0.02    1.261    0.207     4.51     3.58 -74.0
  1223.774   2339.249   0.3611     7.50 000  0.00    1.151    0.132     2.16     1.88  17.0
