#HEIGHT=  2504
#WIDTH =  3326
#TIME  =  0.000000
#          #
#   1 X_IMAGE         Object position along x                         [pixel]
#   2 Y_IMAGE         Object position along y                         [pixel]
#   3 MAG_APER        Fixed aperture magnitude vector                 [mag]
#   4 FWHM_IMAGE      FWHM assuming a gaussian core                   [pixel]
#   5 FLAGS           Extraction flags
#   6 CLASS_STAR      S/G classifier output
#   7 ELONGATION      A_IMAGE/B_IMAGE
#   8 ELLIPTICITY     1 - B_IMAGE/A_IMAGE
#   9 A_IMAGE         Profile RMS along major axis                    [pixel]
#  10 B_IMAGE         Profile RMS along minor axis                    [pixel]
#  11 THETA_IMAGE     Position angle (CCW/x)                          [deg]
  2942.469     20.827  -0.6634    12.25 000  0.04    1.260    0.206     4.61     3.66  -8.0
  2317.745      9.248  -0.4133     9.52 000  0.07    1.225    0.184     3.61     2.95  -8.5
  1301.177     25.250   0.8291     7.30 000  0.00    1.092    0.084     1.96     1.80 -17.2
   748.787     35.099   0.5390     6.29 000  0.00    1.045    0.043     2.00     1.91  66.5
  3313.380     44.780   1.0185    10.90 000  0.00    1.046    0.044     2.42     2.31  53.7
    78.444     43.051   1.3501     7.27 000  0.00    1.292    0.226     1.38     1.07  47.1
   494.347     50.028   1.0324     5.79 000  0.00    1.234    0.190     1.66     1.35  66.9
    55.871     63.034   0.3490     6.88 000  0.01    1.186    0.157     2.32     1.96  39.3
  1142.672     65.739   0.5063     6.33 000  0.00    1.118    0.105     2.06     1.85  10.9
  1322.681    158.217   1.2267     7.98 000  0.00    1.041    0.039     1.51     1.45 -67.7
   288.180    206.565   0.1598     6.50 000  0.02    1.192    0.161     2.29     1.93  40.3
  1450.783    196.501   1.4579     6.89 000  0.00    1.244    0.196     1.29     1.03   2.4
   523.676    232.181   0.8451     6.19 000  0.00    1.331    0.249     1.89     1.42  50.7
  1160.709    246.579  -0.5338     6.43 000  0.04    1.072    0.068     2.61     2.44   0.5
  2186.145    296.131   1.0949     8.63 000  0.00    1.202    0.168     2.02     1.68  -7.6
  2369.041    372.483   0.6053     8.72 000  0.00    1.157    0.136     2.60     2.25  -2.5
  2980.893    457.082  -0.6130    12.58 000  0.12    1.324    0.245     4.79     3.62  -8.4
   891.162    468.326   1.0511     5.53 000  0.00    1.157    0.136     1.66     1.43  23.8
  2062.665    527.987   0.4829     7.94 000  0.00    1.176    0.150     2.48     2.11  -3.4
  1928.205    539.358   0.0295     7.97 000  0.01    1.142    0.125     2.77     2.42   0.9
  2213.884    518.310   1.7125     5.56 000  0.00    1.498    0.332     1.14     0.76   8.9
   686.341    528.199   1.5405     5.15 000  0.00    1.309    0.236     1.15     0.88  65.7
  2290.175    545.842   1.6406     6.44 000  0.00    1.549    0.355     1.34     0.87 -12.0
  1075.361    598.414   1.5915     5.82 000  0.00    1.161    0.139     1.05     0.91  43.8
   780.930    640.010   0.2601     5.42 000  0.02    1.059    0.056     1.97     1.86   9.3
  1300.429    702.726  -0.1092     6.74 000  0.03    1.078    0.072     2.42     2.24  -1.3
   326.543    730.670  -0.4326     5.98 000  0.03    1.188    0.159     2.56     2.15  40.2
   146.312    731.459   0.7017     6.16 000  0.00    1.204    0.169     2.01     1.67  41.2
   576.392    747.337   0.5729     5.83 000  0.02    1.153    0.133     1.91     1.66  43.5
   633.682    747.742   1.3755     6.51 000  0.00    1.393    0.282     1.32     0.95  25.1
    79.332    776.162   1.2168     7.18 000  0.00    1.499    0.333     1.73     1.16  55.8
   312.424    829.556   0.8736     5.41 000  0.01    1.188    0.158     1.62     1.37  42.3
  1468.334    837.070   1.6291     5.75 000  0.00    1.251    0.201     1.08     0.86 -35.5
  1947.711    889.731   1.6422     5.58 000  0.00    1.681    0.405     1.21     0.72  -9.7
  2491.056    978.146   0.4655     9.80 000  0.00    1.144    0.126     2.94     2.57  -0.3
   128.718    979.683   0.6442     6.33 000  0.00    1.183    0.154     1.97     1.66  36.0
   384.328    993.026   0.7609     5.93 000  0.00    1.152    0.132     1.86     1.62  32.3
  1245.990    997.467   1.5799     4.79 000  0.01    1.097    0.088     0.97     0.89 -49.8
  1129.496   1030.359   1.1142     5.90 000  0.00    1.064    0.060     1.51     1.42 -40.6
  1128.148   1048.009   0.8423     5.75 000  0.00    1.101    0.092     1.74     1.58 -45.6
  1188.468   1067.842   0.8692     6.40 000  0.00    1.170    0.145     1.86     1.59 -15.3
  2925.718   1089.806   1.0954    10.28 000  0.00    1.104    0.094     2.10     1.91  59.2
  1953.686   1093.478   0.8150     8.14 000  0.00    1.202    0.168     2.33     1.94   3.6
  1138.588   1132.213  -1.0570     6.38 000  0.05    1.108    0.097     2.90     2.62  11.8
  2935.941   1151.386   1.3495     9.72 000  0.00    1.234    0.189     1.80     1.46 -25.6
   214.963   1158.948   1.3057     5.54 000  0.00    1.235    0.190     1.42     1.15  42.5
  1472.038   1170.209   1.3284     7.39 000  0.00    1.140    0.123     1.54     1.35 -63.4
   502.243   1189.086   0.8926     5.74 000  0.00    1.136    0.120     1.69     1.49  49.0
  1134.317   1210.309   1.0739     6.10 000  0.00    1.112    0.101     1.52     1.37 -44.9
  1192.724   1228.384  -0.1120     6.53 000  0.03    1.061    0.058     2.42     2.28 -14.1
  1820.129   1228.367   0.4435     8.01 000  0.00    1.196    0.164     2.55     2.13 -17.0
  1683.569   1241.548   0.7732     7.53 000  0.00    1.110    0.099     2.12     1.91 -29.8
   760.995   1263.278   0.2181     5.67 000  0.02    1.074    0.069     2.03     1.89  59.5
  1353.974   1270.026   0.6060     6.40 000  0.00    1.081    0.075     2.01     1.86 -13.9
  2762.416   1276.650   0.8478    10.86 000  0.00    1.080    0.074     2.67     2.47 -15.5
  2029.222   1300.969   0.4111     8.07 000  0.00    1.148    0.129     2.59     2.26  -8.9
  2009.250   1318.526  -0.1219     8.67 000  0.02    1.199    0.166     3.17     2.64  -8.5
  2037.077   1336.844   0.0994     8.45 000  0.00    1.142    0.125     2.87     2.51   1.4
  1621.455   1353.123   1.2044     8.81 000  0.00    1.128    0.113     1.68     1.49 -23.4
  2247.732   1355.011   1.4652     7.58 000  0.00    1.379    0.275     1.49     1.08 -54.9
  1532.714   1361.885   1.6899     5.37 000  0.00    2.058    0.514     1.29     0.63 -37.8
   598.668   1363.979   1.4064     5.96 000  0.00    1.254    0.202     1.28     1.02  88.4
  1952.803   1403.290   1.0002     8.70 000  0.00    1.304    0.233     2.30     1.76 -34.2
   479.011   1400.815   1.5255     5.08 000  0.00    1.231    0.188     0.95     0.77  85.5
   878.669   1494.845  -0.0133     6.40 000  0.03    1.064    0.060     2.36     2.22  48.9
  2328.293   1497.087   1.2350    10.53 000  0.00    1.229    0.186     2.10     1.71 -30.5
   106.432   1989.861   1.1022     6.70 000  0.00    1.232    0.189     1.73     1.41 -68.0
   514.047   2501.471   0.7819     7.07 008  0.00    1.130    0.115     1.85     1.64 -18.3
   713.135   2462.249  -1.2974     8.68 000  0.05    1.082    0.076     3.73     3.45  48.2
   614.474   2467.643   1.6587     5.52 000  0.00    1.157    0.136     1.00     0.86  18.5
   427.987   2445.484   0.4225     7.83 000  0.00    1.134    0.118     2.53     2.23 -75.2
   205.236   2444.421   1.6100     5.64 000  0.00    1.320    0.243     1.09     0.82  59.3
   904.497   2439.850   0.9967     7.57 000  0.00    1.170    0.145     2.00     1.71 -44.4
   474.988   2425.900  -0.0292     8.37 000  0.01    1.053    0.051     2.85     2.71 -71.2
   235.691   2420.118  -2.6413     8.98 000  0.05    1.127    0.112     4.24     3.77  37.5
  2476.339   2431.323   1.7332     5.30 002  0.00    1.606    0.377     1.13     0.70 -60.2
  2475.517   2428.742   1.7210     5.80 002  0.00    2.970    0.663     1.68     0.57 -38.8
  1360.422   2384.032   1.2718     8.33 000  0.00    1.179    0.152     1.78     1.51 -32.7
    80.685   2353.457  -2.2808     8.71 000  0.06    1.115    0.103     4.11     3.68  42.2
   358.907   2342.995  -0.6324     8.21 000  0.08    1.046    0.044     3.23     3.09  57.2
  2300.987   2339.968   0.7307    11.64 000  0.00    1.038    0.036     2.82     2.72 -31.1
   163.376   2343.891   1.5352     6.16 000  0.00    1.314    0.239     1.21     0.92 -81.8
   477.202   2323.050  -4.9988    10.42 004  0.84    1.175    0.149     5.13     4.37  33.1
   112.999   2303.506   0.8674     7.39 000  0.00    1.230    0.187     2.16     1.76 -89.9
   201.621   2270.734  -3.1486     8.67 000  0.23    1.111    0.100     4.40     3.96  38.5
   158.804   2281.510   1.6403     3.81 000  0.00    1.333    0.250     0.99     0.74 -89.1
    48.415   2267.383  -0.6501     8.37 000  0.03    1.077    0.072     3.37     3.12  34.6
   425.878   2233.222  -3.7019     9.19 000  0.56    1.174    0.148     4.72     4.02  39.2
   570.455   2238.557   0.8723     7.35 000  0.00    1.285    0.222     2.08     1.62 -78.1
  1769.834   2216.383  -1.2929     9.90 000  0.20    1.143    0.125     4.10     3.59  19.4
  1702.362   2219.897   0.9058     8.53 000  0.00    1.290    0.225     2.35     1.82 -60.3
   165.504   2211.162  -2.7981     8.59 000  0.28    1.135    0.119     4.30     3.79  37.9
   233.287   2193.728   1.3762     6.60 000  0.00    1.250    0.200     1.48     1.18  87.2
  1646.612   2174.506   1.2043     9.56 000  0.00    1.227    0.185     1.95     1.59 -44.7
   488.135   2167.664  -0.2302     7.32 000  0.03    1.079    0.073     2.78     2.58  52.3
  2304.787   2162.852   0.8156     9.62 000  0.00    1.054    0.051     2.53     2.40   1.4
   508.883   2135.300  -1.5591     7.80 000  0.05    1.098    0.090     3.50     3.19  39.2
  2038.486   2134.648  -0.3156     9.69 000  0.08    1.110    0.099     3.63     3.27   3.7
   421.615   2135.763   0.1155     7.43 000  0.02    1.077    0.072     2.58     2.39 -65.4
   322.300   2128.547   1.2841     8.00 000  0.00    1.156    0.135     1.54     1.33  59.8
   380.249   2103.262  -4.8120     9.16 000  0.78    1.178    0.151     4.84     4.10  31.5
   436.355   2092.365   1.3160     5.72 000  0.00    1.383    0.277     1.55     1.12 -84.0
   620.930   2073.837   0.6948     7.49 000  0.00    1.224    0.183     2.18     1.78 -89.3
   199.521   2063.895  -3.3552     8.29 000  0.35    1.151    0.131     4.17     3.62  30.8
   844.487   2052.615  -0.2199     7.65 000  0.03    1.057    0.054     2.80     2.65  31.3
   583.816   2053.636   1.3223     5.90 000  0.00    1.255    0.203     1.47     1.17 -84.5
   307.812   2050.725   1.1682     6.78 000  0.00    1.153    0.133     1.63     1.41 -67.3
   994.783   2037.423   1.0885     7.71 000  0.00    1.140    0.123     1.89     1.66 -66.5
   809.721   2034.292   1.4054     7.07 000  0.00    1.304    0.233     1.35     1.04  67.1
    98.733   2016.915   1.5884     6.17 000  0.00    1.520    0.342     1.27     0.84 -54.1
   581.238   2006.379  -2.5756     8.32 000  0.06    1.161    0.139     4.09     3.53  31.4
  1556.823   1997.905   0.5711     8.01 000  0.00    1.086    0.079     2.40     2.21 -14.9
  1450.958   1962.896   1.2091     7.37 000  0.00    1.205    0.170     1.75     1.45 -29.5
   236.263   1956.636  -1.2109     7.53 000  0.04    1.105    0.095     3.27     2.96  37.3
   330.730   1961.757   1.3529     7.30 000  0.00    1.300    0.231     1.42     1.09  81.9
   277.773   1950.919   0.4769     6.75 000  0.00    1.098    0.089     2.16     1.96 -84.3
   490.390   1940.053  -1.2006     9.96 000  0.03    1.282    0.220     4.06     3.17  88.7
   643.211   1947.567   1.1825     5.84 000  0.00    1.116    0.104     1.51     1.36 -88.4
   824.274   1934.138  -1.9792     7.61 000  0.10    1.150    0.130     3.66     3.18  20.3
  1021.379   1936.269   0.5558     7.20 000  0.00    1.019    0.019     2.17     2.13 -26.5
   195.190   1928.107  -2.4406     7.96 000  0.14    1.168    0.144     3.93     3.36  28.3
  2003.798   1935.514   1.6063     7.86 000  0.00    1.692    0.409     1.71     1.01  -1.1
   656.493   1925.305   0.2290     6.43 000  0.03    1.076    0.070     2.22     2.07 -87.6
   362.947   1914.227   1.0464     6.13 000  0.00    1.185    0.156     1.63     1.37  67.8
   269.534   1902.087  -1.4566     7.40 000  0.05    1.102    0.093     3.30     2.99  32.4
   216.518   1899.899  -2.0937     8.18 000  0.05    1.195    0.164     3.87     3.24  26.3
   322.132   1900.016  -0.9954     7.19 000  0.04    1.077    0.071     3.07     2.85  22.1
  1530.274   1879.620   0.7232     7.61 000  0.00    1.212    0.175     2.30     1.90 -32.2
  1584.145   1868.035  -2.2492     9.14 000  0.73    1.210    0.174     4.22     3.49   6.8
   568.962   1872.683   0.0928     7.07 000  0.02    1.052    0.050     2.39     2.27  87.7
  3112.491   1849.341   0.2984    11.14 000  0.00    1.171    0.146     3.49     2.98 -27.2
    31.953   1817.237   0.3097     7.52 000  0.00    1.085    0.079     2.41     2.22  56.3
   382.302   1807.600   0.2471     6.69 000  0.01    1.094    0.086     2.27     2.08  49.5
   258.060   1765.547  -1.3992     6.61 000  0.05    1.063    0.059     2.97     2.80 -42.1
   455.704   1700.569   0.2706     6.48 000  0.02    1.033    0.032     2.13     2.06 -10.9
    92.883   1612.867  -1.4900     6.92 000  0.04    1.106    0.096     3.23     2.92  31.4
  1078.738   1609.670   0.3565     6.70 000  0.00    1.070    0.065     2.17     2.03  73.0
  2638.656   1578.858   1.4888     9.77 000  0.00    1.178    0.151     1.77     1.50  87.9
  2136.857   1545.577  -2.0074    11.24 000  0.44    1.286    0.222     4.79     3.72   3.3
  3108.295   1535.050   1.2918    12.78 000  0.00    1.413    0.292     2.53     1.79 -44.1
   247.092   2358.132   1.6673     5.26 000  0.00    1.678    0.404     1.14     0.68 -82.4
  1332.215   2348.722   1.2333     7.93 000  0.00    1.268    0.212     1.78     1.40 -59.2
   260.327   2313.709  -2.0863     8.49 000  0.06    1.102    0.092     3.97     3.61  40.1
  1105.150   2298.992   1.1009     5.90 000  0.00    1.089    0.082     1.63     1.50  82.8
   460.806   2287.858  -0.2041     7.66 000  0.03    1.042    0.040     2.75     2.64  66.3
   153.632   2241.632  -3.0286     9.44 000  0.24    1.267    0.211     4.94     3.90  51.2
   277.783   2253.687   1.6796     5.21 000  0.00    1.655    0.396     1.13     0.68  71.6
     3.394   2225.864  -0.0621    12.48 008  0.03    1.728    0.421     3.37     1.95  88.0
   199.492   2198.868   1.5682     7.11 000  0.00    1.596    0.373     1.50     0.94  89.7
   256.453   2148.166  -0.7665     7.74 000  0.03    1.057    0.054     3.16     2.99  47.4
  1110.244   2111.396   0.7232     7.41 000  0.00    1.211    0.174     2.22     1.84 -74.2
   985.113   2080.003   0.8098     7.17 000  0.00    1.118    0.106     2.01     1.80 -60.8
   678.855   2083.016   1.5388     5.84 000  0.00    1.649    0.394     1.26     0.76  89.2
  2005.691   2063.547   0.8905     9.53 000  0.00    1.110    0.099     2.34     2.11 -34.5
  2699.271   1765.553   0.0121    11.85 000  0.00    1.169    0.145     3.91     3.35   2.8
  1364.164   1737.267  -0.4422     7.24 000  0.03    1.123    0.109     2.92     2.60   5.4
   133.513   1751.619   1.4570     6.27 000  0.00    1.432    0.302     1.26     0.88  58.0
  1756.141   1706.611  -1.3061     8.68 000  0.12    1.181    0.153     3.79     3.21   3.1
   267.410   1711.609   1.3743     6.06 000  0.00    1.190    0.160     1.32     1.11 -78.9
   797.963   1618.914   1.1837     6.72 000  0.00    1.275    0.216     1.57     1.23 -89.9
  1923.007   1630.629   0.8826     8.32 000  0.00    1.150    0.131     2.30     2.00 -34.2
  1824.115   1589.621  -2.9356    11.64 000  0.72    1.361    0.265     5.28     3.88  14.2
  2327.023   1547.828   0.7525    10.08 000  0.00    1.157    0.136     2.64     2.28 -16.8
   332.160   2466.709   0.1227     8.17 000  0.00    1.056    0.053     2.77     2.62 -72.3
   458.438   2493.012   1.3268     8.82 000  0.00    1.206    0.171     1.62     1.35 -72.3
  1785.586   1526.676  -1.5247     8.88 000  0.08    1.198    0.165     3.91     3.27   1.4
  2898.156   2367.196   1.1797    11.62 000  0.00    1.489    0.329     2.48     1.67 -50.2
  1754.617   2396.733   0.7367     9.25 000  0.00    1.057    0.054     2.52     2.38 -30.3
   173.343   2397.849   0.8255     9.54 000  0.00    1.242    0.195     2.56     2.06 -86.0
   219.760   2368.633   1.5742     5.72 000  0.00    1.190    0.159     1.05     0.88  69.2
   387.083   2240.543  -2.0658     8.34 000  0.10    1.255    0.203     4.44     3.54  51.4
   573.940   2208.652  -1.1590     7.90 000  0.03    1.091    0.083     3.43     3.14  39.2
   666.360   2217.771   1.1663     7.73 000  0.00    1.204    0.169     1.72     1.43 -72.9
   578.529   2178.259   0.3403     7.68 000  0.00    1.077    0.072     2.50     2.32 -85.4
   927.190   2170.310   0.8148     8.04 000  0.00    1.214    0.176     2.14     1.76 -68.6
  1398.889   2156.396   0.7358     8.37 000  0.00    1.139    0.122     2.32     2.04 -38.0
   575.462   1810.918  -4.8059     8.35 004  0.74    1.208    0.172     4.59     3.80  27.4
  1201.404   1823.117   0.3095     6.95 000  0.00    1.038    0.036     2.30     2.22 -23.1
   377.238   1894.515   1.3387     6.80 000  0.00    1.089    0.082     1.41     1.30 -81.5
  1489.754   1975.642   1.6057     5.95 000  0.00    1.103    0.093     1.05     0.95 -31.7
  3228.215   2047.436   1.3830    10.16 000  0.00    1.516    0.340     2.09     1.38 -37.7
   267.865   2010.911  -2.1698     9.02 000  0.07    1.245    0.197     4.53     3.64 -17.6
  1009.825   1999.558   0.8523     7.37 000  0.00    1.117    0.104     2.03     1.81 -48.2
   421.268   1956.776  -2.1893     7.61 000  0.04    1.126    0.112     3.69     3.27  27.1
