#HEIGHT=  2504
#WIDTH =  3326
#TIME  =  0.000000
#          #
#   1 X_IMAGE         Object position along x                         [pixel]
#   2 Y_IMAGE         Object position along y                         [pixel]
#   3 MAG_APER        Fixed aperture magnitude vector                 [mag]
#   4 FWHM_IMAGE      FWHM assuming a gaussian core                   [pixel]
#   5 FLAGS           Extraction flags
#   6 CLASS_STAR      S/G classifier output
#   7 ELONGATION      A_IMAGE/B_IMAGE
#   8 ELLIPTICITY     1 - B_IMAGE/A_IMAGE
#   9 A_IMAGE         Profile RMS along major axis                    [pixel]
#  10 B_IMAGE         Profile RMS along minor axis                    [pixel]
#  11 THETA_IMAGE     Position angle (CCW/x)                          [deg]
  1735.250      4.594  -1.2694     9.28 008  0.45    1.562    0.360     3.75     2.40   0.7
   918.814     50.323  -0.0063     7.28 000  0.02    1.085    0.079     2.56     2.36 -19.6
  2168.990     74.461  -0.2902    10.10 000  0.02    1.191    0.161     3.80     3.19 -19.0
  2794.070     86.561  -0.5471    13.02 000  0.22    1.278    0.218     4.77     3.73 -18.2
  1152.431     90.952   0.9259     7.02 000  0.00    1.108    0.097     1.91     1.72  17.6
   600.408    100.380   0.7118     7.27 000  0.00    1.108    0.097     2.07     1.86  56.6
  3166.770    110.086   0.8676    12.43 000  0.00    1.072    0.067     2.99     2.79 -61.2
   345.807    115.282   1.1184     6.78 000  0.00    1.050    0.047     1.62     1.55 -89.9
   994.156    130.980   0.6751     7.45 000  0.00    1.028    0.027     2.13     2.07 -80.6
  1174.184    223.104   1.4080     7.64 000  0.00    1.249    0.199     1.43     1.14 -67.6
   140.089    271.561   0.2673     6.97 000  0.01    1.184    0.156     2.37     2.00  44.4
  1302.365    262.108   1.6464     5.33 000  0.01    1.418    0.295     1.07     0.75  15.8
   374.794    297.365   1.0451     7.35 000  0.00    1.325    0.245     1.87     1.41  75.2
  1012.329    311.773  -0.3645     7.11 000  0.03    1.051    0.048     2.73     2.60 -10.1
  2036.776    361.634   1.3432    11.01 000  0.00    1.230    0.187     2.04     1.66 -71.8
  2220.268    437.930   0.7391     9.57 000  0.00    1.034    0.033     2.57     2.48  -3.5
  2832.776    522.695  -0.4960    12.86 000  0.07    1.287    0.223     4.87     3.78 -16.1
   742.411    533.496   1.2507     6.34 000  0.00    1.180    0.153     1.55     1.31 -43.4
  1913.595    593.524   0.6638     8.84 000  0.00    1.114    0.102     2.55     2.29 -34.7
  1779.340    604.476   0.2141     8.80 000  0.00    1.160    0.138     2.93     2.52 -24.3
   632.227    705.076   0.5331     6.62 000  0.00    1.076    0.071     2.14     1.99 -63.2
  1151.580    767.746   0.0177     7.23 000  0.02    1.095    0.087     2.58     2.36 -38.9
   177.843    795.564  -0.2880     6.68 000  0.03    1.148    0.129     2.62     2.28  43.3
   427.222    812.239   0.7419     6.65 000  0.00    1.205    0.170     2.01     1.67  54.9
   163.392    893.919   0.9145     6.68 000  0.00    1.231    0.188     1.86     1.51  29.6
  2342.300   1043.887   0.6010    10.60 000  0.00    1.166    0.143     3.15     2.70 -16.9
   235.434   1057.812   0.8824     6.78 000  0.00    1.212    0.175     1.93     1.59  34.6
   980.493   1095.351   1.3049     7.20 000  0.00    1.121    0.108     1.51     1.35 -60.4
   978.994   1113.136   1.0287     6.55 000  0.00    1.119    0.106     1.88     1.68  89.4
  1039.429   1132.845   1.0785     8.68 000  0.00    1.118    0.106     1.77     1.58 -41.3
  2777.816   1154.927   1.2527    12.05 000  0.00    1.306    0.235     2.42     1.85 -63.1
  1804.463   1158.934   0.9107     8.89 000  0.00    1.150    0.131     2.32     2.02 -40.6
   989.463   1197.062  -0.9140     7.00 000  0.03    1.058    0.055     2.98     2.82  14.0
  2786.328   1219.059   1.5890     7.89 002  0.00    1.426    0.299     1.58     1.10  38.6
  2789.210   1215.805   1.6938     4.88 002  0.00    1.408    0.290     0.97     0.69  32.7
    65.867   1223.538   1.4669     6.95 000  0.00    1.157    0.136     1.25     1.08  32.5
  1322.946   1235.305   1.3772     8.55 000  0.00    1.079    0.073     1.48     1.38  60.2
   353.234   1253.562   0.9998     6.76 000  0.00    1.309    0.236     1.84     1.41  32.2
   985.147   1275.261   1.1908     7.50 000  0.00    1.043    0.041     1.58     1.51 -52.7
  1043.680   1293.476   0.0402     6.95 000  0.02    1.019    0.019     2.42     2.38   7.5
  1670.849   1293.448   0.5609     8.50 000  0.00    1.133    0.118     2.58     2.27 -14.4
  1534.467   1306.654   0.8113     7.61 000  0.00    1.043    0.041     2.13     2.04 -73.5
   611.884   1328.022   0.4327     6.49 000  0.01    1.129    0.114     2.17     1.92  52.2
  2613.250   1342.088   0.9985    12.13 000  0.00    1.072    0.067     2.72     2.54 -34.2
  1204.934   1335.367   0.7448     6.97 000  0.00    1.195    0.163     2.07     1.73 -67.7
  1879.805   1366.104   0.5871     9.60 000  0.00    1.147    0.128     2.68     2.33 -28.4
  1859.739   1383.717   0.0561     9.14 000  0.01    1.067    0.063     3.05     2.86 -13.5
  1887.758   1401.997   0.2678     9.33 000  0.00    1.097    0.089     3.01     2.74 -23.4
  1472.429   1418.503   1.3169     7.55 000  0.00    1.196    0.164     1.66     1.39 -80.2
  2099.372   1420.580   1.5980     8.42 000  0.00    1.296    0.228     1.60     1.24 -81.3
   449.368   1428.423   1.5361     5.77 000  0.00    1.178    0.151     1.05     0.89  50.0
  1803.301   1468.515   1.0969     9.09 000  0.00    1.092    0.084     2.08     1.90 -49.2
   329.595   1465.635   1.5294     6.32 000  0.00    1.566    0.361     1.33     0.85  51.6
  3288.254   1504.984   1.1816    14.96 000  0.00    1.307    0.235     3.04     2.33 -53.4
  1052.346   1887.885   0.4248     7.57 000  0.00    1.029    0.028     2.39     2.32  87.3
   754.973   2502.730   1.3895     7.25 024  0.00    1.575    0.365     1.52     0.97   0.1
  2326.401   2496.081   1.6165     7.44 000  0.00    1.625    0.385     1.59     0.98 -88.2
    86.115   2484.407  -2.6353     8.88 000  0.28    1.161    0.139     4.39     3.78  40.0
   325.491   2490.450   0.0305     8.44 000  0.00    1.120    0.107     2.94     2.63  48.8
  1211.506   2449.320   1.4009    10.01 000  0.00    1.358    0.264     1.95     1.43 -58.4
    70.466   2433.630   1.5969     5.83 000  0.00    1.489    0.329     1.19     0.80  38.0
  2151.506   2405.281   0.8025    11.20 000  0.00    1.118    0.105     2.90     2.59 -37.7
    13.740   2407.947   1.5286     6.15 000  0.03    1.866    0.464     1.41     0.75  56.6
   327.380   2387.368  -5.0233     9.27 004  0.84    1.145    0.127     4.86     4.24  43.8
    52.168   2335.273  -3.1425     8.97 000  0.46    1.173    0.147     4.55     3.88  40.4
   420.814   2303.168   0.8972     7.29 000  0.00    1.183    0.154     2.02     1.71  84.7
  1553.172   2285.313   1.0006    10.27 000  0.00    1.176    0.150     2.32     1.97 -65.9
   424.095   2273.277  -1.1249     7.63 000  0.03    1.117    0.105     3.37     3.02  50.7
    84.013   2258.790   1.4471     8.42 000  0.00    1.118    0.105     1.49     1.33  73.1
  1497.307   2239.828   1.2379    10.92 000  0.00    1.112    0.101     1.92     1.73  82.0
   338.536   2232.499  -0.1547     7.70 000  0.03    1.184    0.156     2.90     2.45  51.1
  2155.478   2228.522   0.9379    11.14 000  0.00    1.129    0.114     2.76     2.44 -46.2
  1889.134   2200.154  -0.2529    10.21 000  0.02    1.075    0.070     3.60     3.35  24.5
   272.055   2200.768   0.1907     7.58 000  0.00    1.123    0.110     2.61     2.33  49.9
   172.822   2193.415   1.2925     7.50 000  0.00    1.088    0.081     1.49     1.37  57.3
   230.408   2168.036  -4.8407     8.51 000  0.83    1.169    0.144     4.74     4.05  37.4
   960.980   2176.712   0.7939     7.71 000  0.00    1.153    0.133     2.15     1.86 -77.1
   641.591   2142.608   1.6246     5.84 000  0.00    1.166    0.142     1.06     0.91  42.2
   471.158   2138.289   0.7571     6.35 000  0.00    1.218    0.179     1.94     1.59  81.1
    50.271   2128.500  -3.3087     8.34 000  0.59    1.168    0.144     4.29     3.67  35.8
   694.799   2117.447  -0.1000     7.67 000  0.03    1.085    0.079     2.77     2.55  58.3
   434.519   2118.149   1.3939     6.38 000  0.00    1.162    0.139     1.31     1.13  70.4
   158.324   2115.921   1.3007     8.88 000  0.00    1.375    0.273     1.74     1.27  78.9
  3079.017   2115.770   1.5403     7.17 002  0.00    1.977    0.494     1.69     0.85  65.5
  3081.437   2111.861   1.5439     7.25 002  0.00    1.522    0.343     1.50     0.98   5.7
   118.300   2075.816  -2.0251     8.69 000  0.43    1.242    0.195     4.78     3.85 -21.7
   431.658   2071.133  -2.6954     7.80 000  0.25    1.129    0.114     3.92     3.48  38.0
  1407.767   2062.956   0.6469     8.85 000  0.00    1.096    0.088     2.53     2.30 -86.8
   860.145   2064.285   0.9269     7.42 000  0.00    1.115    0.103     1.99     1.79  81.4
  1301.796   2027.805   1.2927     9.35 000  0.00    1.163    0.140     1.68     1.45 -59.9
   181.866   2026.817   1.3572     8.87 000  0.00    1.356    0.263     1.73     1.27  37.3
    86.528   2021.354  -1.1336     7.25 000  0.05    1.167    0.143     3.32     2.84  53.3
   128.638   2015.489   0.5906     7.20 000  0.00    1.146    0.128     2.27     1.98  65.2
   494.083   2012.574   1.2784     8.03 000  0.00    1.267    0.211     1.70     1.35  84.8
   340.949   2004.660  -1.1603     9.93 000  0.03    1.293    0.226     4.11     3.18  87.4
   674.651   1998.980  -1.9335     7.51 000  0.14    1.117    0.105     3.61     3.23  36.7
   871.931   2001.262   0.6074     7.56 000  0.00    1.094    0.086     2.26     2.07  86.3
  1854.059   2001.495   1.5764     7.52 000  0.00    1.672    0.402     1.63     0.97 -58.3
    45.819   1992.828  -2.4061     7.86 000  0.35    1.156    0.135     3.87     3.34  34.0
   506.900   1989.921   0.3211     7.03 000  0.00    1.099    0.090     2.35     2.13  53.0
   213.493   1979.288   1.1981     6.79 000  0.00    1.140    0.123     1.61     1.41  49.5
   120.026   1966.675  -1.2692     7.95 000  0.03    1.182    0.154     3.61     3.06  46.9
    67.169   1964.607  -2.0978     7.90 000  0.07    1.158    0.136     3.84     3.31  35.1
   172.619   1964.600  -0.9129     7.63 000  0.05    1.199    0.166     3.27     2.73  40.3
   227.735   1959.329   1.4018     7.34 000  0.00    1.317    0.240     1.41     1.07  51.3
  1381.328   1944.612   0.9781     9.28 000  0.00    1.024    0.023     2.19     2.14 -69.2
  1434.929   1933.099  -2.1454     9.27 000  0.28    1.109    0.099     4.20     3.79  16.5
   419.753   1937.233   0.1704     7.25 000  0.01    1.152    0.132     2.57     2.23  57.4
  2964.013   1915.260   0.4192    11.86 000  0.00    1.100    0.091     3.60     3.27 -43.1
   425.751   1875.453  -4.7861     7.60 000  0.81    1.151    0.131     4.26     3.71  39.1
   233.005   1872.414   0.3218     7.05 000  0.00    1.160    0.138     2.40     2.07  58.2
  2550.589   1831.168   0.1228    12.11 000  0.00    1.113    0.102     3.86     3.46 -12.8
   109.144   1830.744  -1.3082     7.34 000  0.07    1.181    0.153     3.37     2.85  40.4
   118.951   1775.933   1.4730     6.71 000  0.00    1.405    0.288     1.33     0.95  44.6
   306.372   1765.220   0.4152     7.07 000  0.00    1.171    0.146     2.35     2.00  60.3
   648.908   1683.497   1.3398     6.73 000  0.00    1.224    0.183     1.44     1.18  83.0
  3297.764   1676.199   1.1805    12.66 000  0.00    1.399    0.285     2.68     1.91 -58.4
   929.629   1674.341   0.4666     7.23 000  0.00    1.080    0.074     2.30     2.13  56.5
  1674.433   1654.798  -2.8721    10.33 000  0.79    1.258    0.205     4.87     3.87  14.9
  2490.171   1644.886   1.5531     8.40 000  0.00    1.587    0.370     1.77     1.12 -42.1
  1987.353   1611.048  -1.9069    10.83 000  0.62    1.220    0.180     4.71     3.86   7.1
  2177.571   1613.434   0.9139    10.54 000  0.00    1.091    0.084     2.43     2.23 -27.2
  2958.524   1603.506   1.6513     4.75 002  0.00    2.657    0.624     1.30     0.49  -4.7
  2959.616   1599.588   1.5879     8.30 002  0.00    1.399    0.285     1.64     1.17 -39.1
  1636.156   1591.870  -1.3968     9.07 000  0.20    1.138    0.121     3.88     3.41   7.7
  3312.875   1548.938   1.2859    13.99 000  0.00    1.519    0.342     2.88     1.89 -51.0
    23.725   2462.168   0.7363     8.38 000  0.00    1.144    0.126     2.34     2.04  63.6
   209.344   2407.359  -0.5775     8.36 000  0.03    1.114    0.102     3.33     2.99  49.5
  1182.906   2414.125   1.3644     9.91 000  0.00    1.312    0.238     1.90     1.44 -88.2
   110.485   2378.069  -2.0473     8.40 000  0.05    1.127    0.113     3.97     3.53  46.2
   955.781   2363.959   1.1689     7.53 000  0.00    1.114    0.102     1.73     1.56 -83.7
   311.448   2352.340  -0.0870     8.09 000  0.02    1.097    0.088     2.91     2.65  44.4
   276.070   2297.582  -3.6672     8.90 000  0.73    1.177    0.151     4.72     4.01  41.9
   237.498   2305.082  -1.9888     8.56 000  0.05    1.258    0.205     4.42     3.51  50.6
  1620.609   2281.645  -1.2417     9.89 000  0.20    1.112    0.101     4.07     3.66  26.7
    49.830   2263.017   1.6343     5.65 000  0.00    1.327    0.246     1.09     0.82  89.6
   107.152   2213.112  -0.6535     7.77 000  0.03    1.249    0.199     3.48     2.79  49.9
  1249.792   2221.552   0.8388     8.32 000  0.00    1.215    0.177     2.34     1.92 -68.6
   286.919   2157.439   1.4298     8.44 000  0.00    1.236    0.191     1.57     1.27  75.6
   835.796   2145.078   0.8325     7.32 000  0.00    1.140    0.123     1.96     1.72 -70.4
   529.156   2147.907   1.5951     6.55 000  0.00    1.215    0.177     1.21     1.00 -76.8
  1856.488   2129.374   0.9745    10.50 000  0.00    1.111    0.100     2.45     2.21 -67.6
   729.629   1559.514   0.1063     6.56 000  0.02    1.041    0.040     2.38     2.29  45.8
  2179.131   1562.849   1.3585     9.79 000  0.00    1.210    0.173     1.91     1.58  82.7
  3026.581   2454.775   1.6607     8.09 000  0.00    1.856    0.461     1.84     0.99 -41.7
  1605.093   2462.048   0.7987    10.25 000  0.00    1.135    0.119     2.61     2.30 -61.9
  2749.493   2433.237   1.3786    13.11 000  0.00    1.342    0.255     2.53     1.89 -43.0
     5.418   2306.497  -2.7745    15.56 008  0.73    1.449    0.310     4.69     3.24  66.6
   516.644   2282.411   1.2239     8.37 000  0.00    1.288    0.224     1.90     1.48  90.0
    16.165   2275.505  -2.6247     9.15 000  0.09    1.167    0.143     4.37     3.75  45.1
   428.697   2243.058   0.3808     7.26 000  0.00    1.200    0.166     2.45     2.05  73.6
   777.644   2235.337   0.7857     7.82 000  0.00    1.175    0.149     2.23     1.90  78.0
   359.051   2200.288  -1.5430     7.77 000  0.10    1.127    0.112     3.58     3.18  46.2
   845.604   2102.117   1.1216     7.42 000  0.00    1.092    0.084     1.72     1.58 -79.8
  1773.773   1696.044   1.0102    10.06 000  0.00    1.185    0.156     2.38     2.01 -61.8
   660.457   2099.178   1.4690     7.07 000  0.00    1.018    0.017     1.19     1.17  89.7
  3286.241   1708.005   0.9439    12.19 000  0.00    1.253    0.202     2.82     2.25 -62.3
  1606.560   1771.687  -1.1997     9.04 000  0.32    1.076    0.071     3.65     3.39  10.6
  1340.724   2040.943   1.6014     6.34 000  0.00    1.470    0.320     1.29     0.88  63.0
   271.617   2021.510  -2.1182     7.80 000  0.05    1.176    0.150     3.79     3.22  41.0
  1214.824   1802.083  -0.3721     7.66 000  0.03    1.025    0.025     2.83     2.76  25.1
