#HEIGHT=  2504
#WIDTH =  3326
#TIME  =  0.000000
#          #
#   1 X_IMAGE         Object position along x                         [pixel]
#   2 Y_IMAGE         Object position along y                         [pixel]
#   3 MAG_APER        Fixed aperture magnitude vector                 [mag]
#   4 FWHM_IMAGE      FWHM assuming a gaussian core                   [pixel]
#   5 FLAGS           Extraction flags
#   6 CLASS_STAR      S/G classifier output
#   7 ELONGATION      A_IMAGE/B_IMAGE
#   8 ELLIPTICITY     1 - B_IMAGE/A_IMAGE
#   9 A_IMAGE         Profile RMS along major axis                    [pixel]
#  10 B_IMAGE         Profile RMS along minor axis                    [pixel]
#  11 THETA_IMAGE     Position angle (CCW/x)                          [deg]
  1609.525     71.711  -0.8842     8.51 000  0.03    1.246    0.198     3.62     2.90 -29.4
   792.751    118.502   0.5111     6.97 000  0.00    1.118    0.105     2.12     1.90 -17.9
  2043.042    143.475   0.0679     9.26 000  0.00    1.208    0.172     3.16     2.62 -23.3
  2667.318    155.694  -0.2602    11.43 000  0.00    1.237    0.191     3.99     3.23 -16.2
  1026.763    158.634   1.4514     5.94 000  0.00    1.093    0.085     1.05     0.96 -24.1
   474.248    168.100   1.0907     6.63 000  0.00    1.207    0.171     1.50     1.24 -19.1
  3039.664    179.498   1.2489    11.75 000  0.00    1.065    0.061     2.02     1.90 -48.1
   219.288    182.700   1.5850     5.20 000  0.00    1.259    0.206     0.98     0.78  45.2
   868.218    198.999   1.0813     7.44 000  0.00    1.137    0.120     1.56     1.37 -31.6
    13.318    339.712   0.6984     6.85 000  0.00    1.270    0.213     1.97     1.55  32.6
   885.945    379.926   0.0050     6.72 000  0.02    1.085    0.079     2.36     2.17  14.0
  2094.111    506.833   1.0361     8.58 000  0.00    1.168    0.144     2.02     1.73   0.8
  2705.766    591.806  -0.1819    11.88 000  0.00    1.252    0.201     4.15     3.31 -13.3
  1787.388    661.855   0.9587     7.78 000  0.00    1.139    0.122     1.96     1.72  -2.9
  1652.791    673.069   0.5600     8.05 000  0.00    1.181    0.153     2.43     2.06 -24.1
   505.554    773.188   0.8779     6.21 000  0.00    1.117    0.105     1.59     1.43 -48.3
  1024.896    836.210   0.4483     6.66 000  0.00    1.162    0.139     2.12     1.82 -20.9
    51.192    863.408   0.1784     6.45 000  0.02    1.151    0.131     2.20     1.91  22.2
   301.042    880.043   1.3612     7.16 000  0.00    1.166    0.143     1.29     1.11  44.1
    36.723    961.828   1.4231     6.71 000  0.00    1.651    0.394     1.44     0.87  50.6
  2215.423   1112.497   0.9490    10.54 000  0.00    1.165    0.142     2.41     2.07 -18.0
  2712.339   1105.397   1.2904     2.58 000  0.30    1.189    0.159     0.93     0.78 -76.1
   108.741   1125.994   1.3314     6.38 000  0.00    1.169    0.145     1.22     1.04 -43.3
   852.633   1181.220   1.4072     5.91 000  0.00    1.109    0.099     1.05     0.94  60.2
  1677.816   1227.165   1.3544     8.90 000  0.00    1.198    0.165     1.63     1.36 -22.2
   862.817   1265.427  -0.4490     6.78 000  0.11    1.041    0.040     2.57     2.47   0.8
   226.390   1321.354   1.4546     5.20 000  0.00    1.170    0.145     1.05     0.90  43.0
   916.972   1361.612   0.4738     6.71 000  0.00    1.035    0.033     2.03     1.96 -59.8
  1544.238   1361.900   1.0397     7.59 000  0.00    1.086    0.079     1.79     1.65 -37.0
  1406.981   1374.857   1.2832     7.45 000  0.00    1.193    0.162     1.36     1.14 -53.0
   485.140   1396.144   1.0546     7.49 000  0.00    1.374    0.272     1.72     1.25  81.5
  1078.127   1403.023   1.1292     6.86 000  0.00    1.140    0.123     1.50     1.31 -34.3
  2486.475   1411.213   1.3725    10.87 000  0.00    1.219    0.180     2.00     1.64 -54.0
  1753.015   1434.498   0.9080     8.47 000  0.00    1.187    0.158     2.07     1.75 -18.2
  1733.092   1452.129   0.4321     8.54 000  0.00    1.094    0.086     2.60     2.37 -31.6
  1760.784   1470.532   0.7073     9.55 000  0.00    1.153    0.133     2.38     2.06 -43.9
   298.876   1943.930  -4.2147     8.12 000  0.82    1.142    0.124     4.42     3.87  34.9
    81.920   2475.417  -0.0363     7.91 000  0.01    1.137    0.120     2.87     2.53  72.0
  2023.860   2473.915   1.2909    10.78 000  0.00    1.340    0.254     2.08     1.55 -42.2
   200.245   2455.809  -4.4206     9.94 000  0.82    1.155    0.134     5.11     4.42  43.4
  3323.904   2287.945   1.3644    16.56 008  0.00    4.125    0.758     5.61     1.36 -88.4
  2028.354   2297.335   1.3096    10.07 000  0.00    1.447    0.309     2.02     1.40 -72.1
  3270.319   2277.547  -3.1009    19.78 000  0.79    1.287    0.223     7.55     5.87   7.0
  1121.442   2289.799   1.4452     6.92 000  0.00    1.702    0.413     1.51     0.89 -68.8
  1761.536   2268.864   0.2044     9.62 000  0.00    1.074    0.069     3.02     2.81 -65.3
   231.966   2268.332  -0.9847     7.94 000  0.04    1.089    0.082     3.26     2.99  55.9
   144.714   2267.707   0.8100     6.70 000  0.00    1.127    0.113     1.84     1.63  68.9
   833.517   2244.406   1.3523     6.59 000  0.00    1.412    0.292     1.45     1.03 -12.3
   344.647   2206.724   1.3391     7.37 000  0.00    1.176    0.150     1.34     1.14 -38.9
  1729.600   2197.587   1.3580     8.49 000  0.00    1.448    0.309     1.71     1.18 -54.2
   304.579   2139.369  -2.0795     8.11 000  0.16    1.121    0.108     3.82     3.41  41.5
     2.631   2137.891   1.0883     9.72 008  0.00    1.793    0.442     2.17     1.21 -89.4
  1279.955   2131.612   1.1159     9.86 000  0.00    1.061    0.058     1.90     1.79  86.6
   733.169   2133.203   1.3984     4.66 000  0.00    1.206    0.171     1.16     0.96  43.9
   547.988   2067.256  -1.3606     7.34 000  0.10    1.115    0.103     3.34     2.99  59.7
   744.997   2069.308   1.1289     7.17 000  0.00    1.043    0.041     1.50     1.44 -76.2
   379.763   2058.164   0.8607     6.97 000  0.00    1.124    0.110     1.83     1.62 -82.0
    45.521   2032.548  -0.3604     7.37 000  0.03    1.094    0.086     2.77     2.53  43.9
  1253.345   2013.112   1.4078     8.21 000  0.00    1.171    0.146     1.49     1.27 -58.9
  1307.406   2001.815  -1.7225     8.62 000  0.28    1.107    0.096     3.88     3.50  25.9
   292.494   2005.233   0.7400     7.08 000  0.00    1.110    0.099     1.96     1.76  56.1
  2836.536   1984.277   0.8171    12.82 000  0.00    1.123    0.109     2.99     2.67 -38.1
   924.853   1956.791   0.9093     7.21 000  0.00    1.143    0.125     1.87     1.64 -76.0
   105.760   1940.322   0.9117     7.55 000  0.00    1.130    0.115     1.86     1.65  65.7
  2422.781   1900.019   0.3512    10.58 000  0.00    1.040    0.038     3.05     2.94 -52.4
  3158.833   1777.589   1.3263    10.64 000  0.00    1.194    0.162     1.94     1.63 -44.3
   802.679   1743.136   0.9794     7.46 000  0.00    1.040    0.039     1.70     1.64 -61.8
  1547.386   1723.530  -2.4561     9.80 000  0.40    1.236    0.191     4.72     3.82  17.7
  1860.380   1679.683  -1.4759     9.74 000  0.70    1.142    0.124     4.12     3.61   4.7
  2050.892   1681.880   1.4071     8.94 000  0.00    1.466    0.318     1.81     1.23 -61.9
  3159.699   1574.104   1.4867     8.08 000  0.00    1.887    0.470     1.86     0.98 -40.5
   183.891   2420.463   0.4514     8.06 000  0.00    1.085    0.078     2.39     2.20 -79.6
   296.959   2341.527  -0.5517     8.07 000  0.07    1.070    0.066     3.09     2.89  57.0
   294.007   2371.174   1.4851     6.09 000  0.00    2.072    0.517     1.47     0.71  79.7
   149.003   2366.029  -3.0862     9.12 000  0.33    1.131    0.116     4.54     4.01  45.6
   110.321   2373.232  -1.4573     8.26 000  0.03    1.286    0.222     4.23     3.29  56.6
  1426.144   2353.988   1.5120     6.23 000  0.00    1.507    0.336     1.28     0.85 -71.1
   103.487   2236.235  -4.1999     9.19 000  0.70    1.139    0.122     4.74     4.16  43.8
   708.405   2212.920   1.4356     7.15 000  0.00    1.303    0.233     1.37     1.05 -77.3
  1509.061   1660.433  -0.9862     8.52 000  0.43    1.124    0.110     3.54     3.15   6.4
   602.759   1627.820   0.6581     6.56 000  0.00    1.175    0.149     1.96     1.67  78.7
   650.893   2303.068   1.4155     7.40 000  0.00    1.234    0.189     1.38     1.12 -56.0
   211.336   2300.336   0.3775     7.87 000  0.00    1.111    0.100     2.40     2.16  85.9
  1492.953   2350.619  -0.8279     9.14 000  0.09    1.079    0.073     3.67     3.41  49.9
   301.438   2310.771   0.9567     7.06 000  0.00    1.233    0.189     1.79     1.45 -69.3
  1647.112   1765.154   1.4123     7.05 000  0.00    1.468    0.319     1.43     0.97 -43.2
   567.772   2185.517   0.3928     7.24 000  0.00    1.108    0.098     2.32     2.09  86.4
   179.330   1832.894   0.9121     6.01 000  0.00    1.091    0.084     1.71     1.57  59.2
  1479.362   1840.430  -0.7657     8.37 000  0.37    1.063    0.059     3.26     3.07  13.8
   144.665   2089.578  -1.5378     7.65 000  0.05    1.111    0.100     3.48     3.13  43.9
  1087.483   1870.776   0.0818     7.32 000  0.00    1.070    0.065     2.44     2.28 -39.4
   213.806   2072.734  -0.5234    10.22 000  0.03    1.285    0.222     3.78     2.94  88.7
     2.453   2082.985   1.3340     7.00 008  0.00    1.562    0.360     1.46     0.94  89.6
