#HEIGHT=  2504
#WIDTH =  3326
#TIME  =  0.000000
#          #
#   1 X_IMAGE         Object position along x                         [pixel]
#   2 Y_IMAGE         Object position along y                         [pixel]
#   3 MAG_APER        Fixed aperture magnitude vector                 [mag]
#   4 FWHM_IMAGE      FWHM assuming a gaussian core                   [pixel]
#   5 FLAGS           Extraction flags
#   6 CLASS_STAR      S/G classifier output
#   7 ELONGATION      A_IMAGE/B_IMAGE
#   8 ELLIPTICITY     1 - B_IMAGE/A_IMAGE
#   9 A_IMAGE         Profile RMS along major axis                    [pixel]
#  10 B_IMAGE         Profile RMS along minor axis                    [pixel]
#  11 THETA_IMAGE     Position angle (CCW/x)                          [deg]
  1505.110     62.540   1.5719     6.33 000  0.00    1.143    0.125     1.14     0.99 -14.6
   471.155    112.619   0.6331     8.69 000  0.00    1.348    0.258     2.62     1.95  71.4
  1343.620    151.314  -0.2323     7.89 000  0.03    1.108    0.098     2.91     2.62  55.6
   706.591    138.164   1.3517     8.72 000  0.00    1.199    0.166     1.63     1.36  80.3
  2368.395    199.698   1.4802     9.39 000  0.00    1.137    0.121     1.67     1.47 -12.8
  2552.056    275.320   0.8844    10.01 000  0.00    1.090    0.083     2.54     2.33 -49.0
  3163.400    359.072  -0.5129    12.10 000  0.01    1.034    0.033     4.33     4.19  -9.0
  1074.102    373.622   1.4269     7.57 000  0.00    1.522    0.343     1.56     1.03  73.8
  2245.597    431.443   0.7474     8.79 000  0.00    1.078    0.072     2.40     2.22 -86.1
  2111.340    442.995   0.3453     9.01 000  0.00    1.073    0.068     2.83     2.64 -82.8
   964.384    545.229   0.7382     7.80 000  0.00    1.170    0.145     2.11     1.80 -89.4
  1483.902    607.481   0.1708     7.42 000  0.00    1.051    0.048     2.45     2.33  80.9
   510.209    636.446  -0.0100     7.98 000  0.02    1.183    0.154     2.86     2.42  67.3
   329.849    637.895   1.0199     7.62 000  0.00    1.259    0.205     1.87     1.48  60.5
   759.608    653.080   0.9499     7.51 000  0.00    1.424    0.298     2.06     1.44  79.9
   495.839    735.154   1.2022     7.45 000  0.00    1.443    0.307     1.74     1.21  83.1
  2674.124    881.249   0.6116     9.28 000  0.00    1.076    0.071     2.66     2.47 -42.2
   312.256    886.114   1.0505     7.74 000  0.00    1.231    0.188     1.91     1.55 -89.5
   568.140    899.100   1.0644     6.65 000  0.00    1.116    0.104     1.72     1.54  57.3
  1313.767    935.734   1.4100     7.52 000  0.00    1.119    0.106     1.35     1.20 -69.4
  1312.199    953.090   1.1317     7.47 000  0.00    1.178    0.151     1.72     1.46  62.9
  1372.537    972.827   1.0824     7.60 000  0.00    1.200    0.167     1.77     1.48  59.9
  3109.621    992.591   1.2814    11.85 000  0.00    1.161    0.139     2.13     1.83 -56.0
  2137.169    997.201   0.9016     8.28 000  0.00    1.050    0.048     2.14     2.04 -55.7
  1322.895   1036.975  -0.7817     7.42 000  0.03    1.040    0.038     3.03     2.91  30.1
   105.946   1055.902   1.4428     7.68 000  0.00    1.126    0.112     1.36     1.21  73.0
  3119.166   1054.090   1.5923     5.60 000  0.03    1.648    0.393     1.21     0.73  10.1
  1656.133   1074.142   1.5067     7.25 000  0.00    1.675    0.403     1.57     0.94 -37.1
    56.046   1111.621  -0.3579     8.75 000  0.03    1.201    0.167     3.32     2.76  44.9
   686.096   1094.832   1.1732     5.85 000  0.00    1.334    0.250     1.64     1.23  80.3
  1318.404   1115.150   1.2312     6.26 000  0.00    1.061    0.058     1.51     1.42 -68.5
  2003.890   1132.021   0.6340     8.22 000  0.00    1.089    0.082     2.36     2.17 -24.8
  1377.050   1133.242   0.1575     7.14 000  0.01    1.083    0.077     2.47     2.28 -82.1
  1867.706   1145.525   0.8650     7.69 000  0.00    1.027    0.026     2.01     1.96 -25.7
   945.173   1168.759   0.5347     6.84 000  0.00    1.236    0.191     2.22     1.79  80.7
  1538.361   1174.590   0.8566     7.22 000  0.00    1.066    0.062     1.91     1.79 -46.1
  2946.330   1179.201   1.0714    11.76 000  0.00    1.129    0.114     2.44     2.16 -21.8
  2213.045   1204.520   0.6430     8.57 000  0.00    1.051    0.048     2.44     2.32 -11.0
  2193.171   1222.207   0.1131     9.16 000  0.00    1.062    0.058     3.03     2.85  29.3
    37.652   1211.886   1.0121    10.17 000  0.00    1.221    0.181     2.26     1.85  70.2
  2221.112   1240.626   0.3350     9.24 000  0.00    1.085    0.079     2.82     2.60  52.2
  1805.322   1257.221   1.3252     8.33 000  0.00    1.106    0.096     1.46     1.32  86.4
  2136.870   1307.056   1.1663     8.93 000  0.00    1.161    0.139     1.89     1.62  77.7
  1063.164   1399.974   0.2076     6.87 000  0.01    1.154    0.133     2.40     2.08  89.2
  1970.286   1430.375  -1.3084     9.62 000  0.07    1.116    0.104     4.09     3.66  11.0
  2512.212   1400.345   1.5103     8.24 000  0.00    1.167    0.143     1.49     1.27 -30.8
  2321.532   1448.945  -1.7765    12.16 000  0.43    1.194    0.162     5.03     4.22   6.9
  3291.981   1437.852   1.3418     9.73 000  0.00    1.177    0.151     1.76     1.50 -40.5
  2008.875   1493.285  -2.7379    12.50 000  0.68    1.323    0.244     5.56     4.20  15.2
  2511.300   1451.035   0.8554    10.13 000  0.00    1.176    0.150     2.53     2.15 -22.6
  2823.479   1482.979   1.5215     7.76 000  0.00    1.381    0.276     1.53     1.10  30.9
   277.853   1518.367  -1.2372     8.28 000  0.09    1.158    0.137     3.64     3.14  39.6
   694.523   2040.946  -1.3553     8.86 000  0.07    1.109    0.098     3.76     3.39  33.0
   699.792   2407.610   0.8554     7.46 000  0.00    1.327    0.247     2.21     1.67 -81.0
   613.590   2350.628   0.5375     7.68 000  0.00    1.175    0.149     2.36     2.01 -83.5
  1090.191   2344.464   1.0697     7.85 000  0.00    1.234    0.190     1.92     1.55 -77.7
   421.778   2325.845  -2.3976    10.34 000  0.10    1.153    0.133     4.71     4.08  32.6
   660.672   2331.275   0.0589     8.54 000  0.00    1.121    0.108     3.05     2.72  84.5
  2661.778   2331.988   1.5987     6.26 000  0.00    1.295    0.228     1.19     0.92 -14.9
   358.753   2303.428   0.8080     9.09 000  0.00    1.379    0.275     2.49     1.80 -68.5
  1940.105   2300.433   0.7929     8.55 000  0.00    1.176    0.150     2.32     1.97 -83.1
   131.797   2274.015  -0.0912     9.72 000  0.00    1.081    0.075     3.42     3.16  37.9
  3083.393   2269.232   1.3205     9.81 000  0.00    1.414    0.293     1.95     1.38 -38.6
   266.850   2259.603  -2.0773     9.65 000  0.11    1.115    0.103     4.40     3.95  35.1
  1517.728   2252.681   1.3213     7.14 000  0.00    1.228    0.186     1.46     1.19 -55.8
   348.853   2249.323   1.5535     6.17 000  0.00    2.476    0.596     1.63     0.66 -77.2
  2486.518   2242.950   0.7385    10.15 000  0.00    1.054    0.051     2.72     2.58 -71.4
   663.216   2228.333  -4.7798    11.50 004  0.81    1.219    0.179     5.43     4.46  31.1
   298.737   2209.548   1.0293     7.78 000  0.00    1.211    0.174     1.92     1.59 -88.3
   234.228   2173.906  -0.4471     9.15 000  0.03    1.108    0.098     3.57     3.22  48.6
   756.207   2143.376   1.0042     7.94 000  0.00    1.293    0.226     2.00     1.55 -72.5
   351.583   2117.200  -2.5660     9.89 000  0.06    1.143    0.125     4.55     3.98  34.2
  1955.498   2120.231  -1.2027    10.06 000  0.06    1.152    0.132     4.25     3.69  22.7
  1887.883   2123.900   1.0018     8.62 000  0.00    1.158    0.136     2.06     1.78 -57.6
   673.852   2073.030  -0.0794     8.27 000  0.01    1.087    0.080     2.91     2.67  78.7
  2489.943   2066.057   0.8152     9.11 000  0.00    1.010    0.010     2.30     2.28   5.3
   442.175   2054.317  -0.6253     8.41 000  0.04    1.085    0.078     3.35     3.09  51.7
  2223.732   2038.109  -0.2303     9.65 000  0.01    1.115    0.103     3.49     3.13  48.9
   606.902   2041.271   0.3574     8.07 000  0.00    1.147    0.128     2.57     2.24 -89.1
   507.617   2034.747   1.4263     7.28 000  0.00    1.636    0.389     1.56     0.95 -68.7
   566.050   2009.244  -4.5096    10.33 000  0.77    1.187    0.158     5.19     4.38  25.7
   621.385   1998.111   1.4841     6.27 000  0.00    1.280    0.219     1.26     0.98 -75.8
   806.513   1979.164   0.8323     7.66 000  0.00    1.283    0.221     2.17     1.69 -74.0
  1029.918   1957.444  -0.0618     7.96 000  0.02    1.110    0.099     2.83     2.55  72.3
   769.516   1958.685   1.5037     6.78 000  0.00    1.571    0.363     1.42     0.91 -75.1
   493.045   1956.230   1.3747     5.55 000  0.00    1.297    0.229     1.37     1.06 -42.0
    52.564   1942.730   1.5252     6.14 000  0.00    1.621    0.383     1.31     0.81 -60.2
   453.488   1916.825  -1.9671    10.04 000  0.14    1.218    0.179     4.68     3.85 -14.8
   766.992   1911.840  -2.4475     9.35 000  0.53    1.170    0.145     4.38     3.75  26.4
   159.777   1898.139  -1.9923     9.41 000  0.04    1.147    0.128     4.33     3.77  27.9
  1194.657   1903.871   1.0026     8.35 000  0.00    1.353    0.261     1.95     1.44 -75.1
  1741.809   1901.900   0.6968     7.60 000  0.00    1.086    0.079     2.24     2.06  84.9
   421.783   1862.609  -0.9825     8.41 000  0.03    1.098    0.089     3.53     3.22  33.3
   515.726   1867.732   1.3851     6.99 000  0.00    1.347    0.258     1.38     1.02 -69.9
   463.225   1856.871   0.6820     7.65 000  0.00    1.259    0.206     2.31     1.84 -89.4
   675.843   1845.538  -1.0002    10.81 000  0.03    1.240    0.194     4.21     3.40  86.7
   828.502   1852.516   1.3519     7.98 000  0.00    1.560    0.359     1.67     1.07  89.3
  1009.908   1839.054  -1.8006     8.23 000  0.04    1.127    0.112     3.77     3.35  28.0
  1206.431   1841.000   0.6139     7.06 000  0.00    1.217    0.178     2.25     1.85 -84.0
   380.724   1834.151  -2.1923     8.93 000  0.05    1.148    0.129     4.19     3.65  28.6
  2189.428   1839.261   1.6189     5.70 000  0.00    1.316    0.240     1.10     0.83  32.5
   841.648   1830.435   0.3555     7.21 000  0.00    1.158    0.136     2.32     2.00 -84.8
   548.372   1819.816   1.3001     6.65 000  0.00    1.143    0.125     1.42     1.25 -47.9
   454.898   1807.863  -1.2448     8.07 000  0.04    1.087    0.080     3.53     3.25  38.4
   401.993   1805.766  -1.8709     8.87 000  0.08    1.179    0.152     4.01     3.40  29.0
   175.470   1812.242   1.3261     8.37 000  0.00    1.120    0.107     1.48     1.32 -67.6
   507.491   1805.731  -0.7794     7.88 000  0.04    1.083    0.077     3.28     3.02  45.5
   562.493   1799.526   1.4803     6.03 000  0.00    1.335    0.251     1.17     0.88 -42.8
  1715.036   1783.417   0.9388     7.78 000  0.00    1.047    0.045     1.96     1.87 -73.7
  1769.318   1771.925  -2.0424     9.89 000  0.42    1.202    0.168     4.49     3.74  20.0
   754.283   1777.706   0.2695     7.67 000  0.00    1.223    0.182     2.58     2.11  74.2
  3296.516   1751.057   0.3472    10.22 000  0.00    1.166    0.142     3.20     2.74 -60.8
  1386.023   1727.655   0.4668     7.14 000  0.00    1.094    0.086     2.27     2.07 -69.3
   216.681   1722.141   0.7807     7.99 000  0.00    1.135    0.119     2.21     1.95 -55.1
   567.304   1713.276   0.4234     7.48 000  0.00    1.189    0.159     2.46     2.07 -84.6
   443.747   1672.005  -1.1073     8.05 000  0.04    1.098    0.089     3.45     3.15  39.9
  2884.162   1668.221   0.2003    12.48 000  0.00    1.100    0.091     3.87     3.52   0.7
   318.150   1658.543   1.5460     5.96 000  0.00    1.165    0.141     1.08     0.93  77.7
   452.186   1617.445   1.6001     5.41 000  0.00    1.486    0.327     1.11     0.75 -48.9
   640.605   1606.206   0.5192     7.19 000  0.00    1.153    0.132     2.27     1.97  84.0
    78.812   1599.933   0.7970     8.79 000  0.00    1.284    0.221     2.38     1.85  77.8
   982.945   1523.944   1.3134     7.66 000  0.00    1.143    0.125     1.37     1.20  78.0
  1263.560   1514.333   0.5020     6.72 000  0.00    1.065    0.061     2.09     1.96 -74.4
   592.247   2436.678   1.3379     7.95 000  0.00    1.311    0.237     1.57     1.20 -89.0
   790.812   2471.180   0.2704     8.64 000  0.00    1.179    0.152     2.87     2.44  84.8
    95.182   2372.417   1.4237     7.59 000  0.00    1.430    0.301     1.52     1.06 -55.5
    81.296   2418.149   0.6946     8.86 000  0.00    1.020    0.019     2.39     2.34 -67.2
   706.485   2437.489   1.3389     7.62 000  0.00    1.413    0.292     1.64     1.16 -55.5
   643.835   2398.371   1.3855     7.04 000  0.00    1.073    0.068     1.36     1.26 -21.3
  1290.785   2203.229   1.3344     8.13 000  0.00    1.187    0.158     1.48     1.25 -84.6
   387.645   2176.748  -2.9261    10.26 000  0.11    1.139    0.122     4.77     4.19  32.4
   646.386   2192.948  -0.0459     8.01 000  0.02    1.098    0.089     2.79     2.54 -86.1
   339.676   2147.586  -2.7980    10.47 000  0.19    1.206    0.171     4.90     4.07  42.6
   572.910   2146.040  -1.9195     8.74 000  0.04    1.210    0.173     4.52     3.74  47.6
   185.466   2132.066  -0.6909     9.51 000  0.03    1.064    0.061     3.71     3.49  39.6
   419.199   2099.920   1.5357     6.38 000  0.00    1.474    0.321     1.30     0.88  81.3
   764.034   2083.338   0.4323     7.68 000  0.00    1.126    0.112     2.43     2.16 -83.5
  1831.833   2078.289   1.3043     9.22 000  0.00    1.032    0.031     1.57     1.52  77.7
  1584.053   2060.466   0.8505     6.79 000  0.00    1.150    0.131     1.97     1.71  87.3
  1295.393   2015.935   0.8941     7.88 000  0.00    1.214    0.176     2.16     1.78 -83.9
   385.346   1969.969  -3.1129     9.63 000  0.17    1.183    0.155     4.70     3.98  29.9
  1170.394   1984.679   0.8963     6.74 000  0.00    1.408    0.290     2.00     1.42 -72.9
  2190.755   1967.202   0.9081     8.55 000  0.00    1.201    0.167     2.28     1.90 -85.1
  1180.165   1941.819   1.1646     6.86 000  0.00    1.199    0.166     1.69     1.41 -82.3
   995.116   1939.099   1.5039     6.71 000  0.00    1.258    0.205     1.26     1.00 -59.4
   291.402   1895.472   1.2226     7.95 000  0.00    1.182    0.154     1.62     1.37 -87.1
   606.750   1862.429  -1.9501     8.70 000  0.10    1.127    0.112     3.95     3.51  27.2
  1635.772   1867.517   1.2930     8.01 000  0.00    1.345    0.257     1.55     1.15 -86.3
   760.889   1716.242  -4.5462     9.72 000  0.74    1.182    0.154     4.92     4.17  23.2
  1548.645   1641.630  -0.3359     7.54 000  0.03    1.033    0.032     2.79     2.70  78.3
  1941.025   1610.413  -1.1324     9.17 000  0.08    1.128    0.113     3.95     3.50  25.0
     6.510   1633.410  -0.0449     9.50 008  0.00    1.167    0.143     3.34     2.87  48.0
   783.439   2461.073   1.4386     7.59 000  0.00    1.682    0.405     1.65     0.98 -86.6
  2107.448   1534.156   0.9473     8.50 000  0.00    1.018    0.018     2.03     2.00 -58.3
   899.255   2367.260  -1.1619     9.08 000  0.16    1.104    0.095     3.87     3.51  35.2
   517.890   2372.109   0.2544     8.28 000  0.00    1.144    0.126     2.77     2.42 -74.9
   446.228   2219.417  -1.8772     9.56 000  0.13    1.115    0.103     4.26     3.82  40.4
  1546.339   2288.149   1.3932     7.54 000  0.00    1.544    0.352     1.57     1.02 -74.4
   544.525   2248.357  -0.4837     8.56 000  0.03    1.061    0.058     3.31     3.12  62.6
   611.739   2138.707  -3.4566    10.47 000  0.45    1.195    0.163     5.00     4.19  31.1
   759.622   2113.879  -0.9886     8.51 000  0.05    1.076    0.070     3.54     3.29  53.3
   851.892   2122.533   1.2812     8.74 000  0.00    1.320    0.242     1.68     1.27 -70.2
  1112.680   2074.932   0.9089     8.02 000  0.00    1.225    0.184     2.10     1.71 -84.4
