#HEIGHT=  2504
#WIDTH =  3326
#TIME  =  0.000000
#          #
#   1 X_IMAGE         Object position along x                         [pixel]
#   2 Y_IMAGE         Object position along y                         [pixel]
#   3 MAG_APER        Fixed aperture magnitude vector                 [mag]
#   4 FWHM_IMAGE      FWHM assuming a gaussian core                   [pixel]
#   5 FLAGS           Extraction flags
#   6 CLASS_STAR      S/G classifier output
#   7 ELONGATION      A_IMAGE/B_IMAGE
#   8 ELLIPTICITY     1 - B_IMAGE/A_IMAGE
#   9 A_IMAGE         Profile RMS along major axis                    [pixel]
#  10 B_IMAGE         Profile RMS along minor axis                    [pixel]
#  11 THETA_IMAGE     Position angle (CCW/x)                          [deg]
  1482.688     44.074   1.5950     6.34 000  0.00    1.489    0.329     1.30     0.87 -47.9
   638.690     67.618  -0.8211     6.81 000  0.05    1.114    0.102     2.95     2.65 -18.8
  1535.589    159.080  -1.3649     8.79 000  0.07    1.222    0.182     3.86     3.16 -27.2
   718.796    205.825  -0.0378     6.63 000  0.03    1.113    0.101     2.48     2.23 -32.7
  1969.175    230.591  -0.4082     9.16 000  0.03    1.197    0.165     3.49     2.91 -29.2
  2594.240    242.819  -0.6647    11.78 000  0.11    1.276    0.216     4.53     3.55 -23.6
   952.269    246.284   0.9658     6.66 000  0.00    1.105    0.095     1.80     1.63 -39.4
   400.014    255.414   0.5914     6.36 000  0.00    1.133    0.117     2.09     1.85 -28.5
  2966.557    266.547   0.8147    12.07 000  0.00    1.114    0.102     2.98     2.67 -46.1
   145.285    270.088   1.1724     4.84 000  0.00    1.109    0.098     1.41     1.27  -7.0
   794.274    286.236   0.7310     6.56 000  0.00    1.273    0.214     2.04     1.60 -42.3
   973.917    379.072   1.3811     7.46 000  0.00    1.194    0.163     1.37     1.14 -81.7
  1102.269    417.618   1.5113     6.54 000  0.00    1.171    0.146     1.19     1.01  13.6
  3322.721    481.158  -0.7901    11.25 008  0.82    1.465    0.318     3.46     2.36 -84.9
   811.669    467.298  -0.4156     6.47 000  0.16    1.094    0.086     2.62     2.39 -24.9
   174.241    452.430   1.0335     6.19 000  0.00    1.107    0.096     1.63     1.47   9.7
  1836.679    517.681   1.1117     8.26 000  0.00    1.206    0.171     1.94     1.61 -39.1
  2020.312    593.871   0.6206     8.93 000  0.00    1.140    0.123     2.60     2.28 -36.6
  2632.003    679.370  -0.6141    11.94 000  0.13    1.225    0.184     4.45     3.63 -15.5
   541.804    689.045   1.2159     6.16 000  0.00    1.158    0.136     1.45     1.25 -13.8
  1713.651    749.419   0.5414     8.36 000  0.00    1.197    0.165     2.59     2.16 -36.0
  1578.814    760.747   0.1010     8.14 000  0.00    1.207    0.172     2.85     2.36 -21.7
   337.094    748.648   1.6704     4.14 000  0.00    1.402    0.287     1.05     0.75 -75.3
  1940.038    767.384   1.6537     6.66 000  0.00    2.128    0.530     1.63     0.76 -29.9
   431.385    860.548   0.5082     6.19 000  0.00    1.033    0.032     1.90     1.84 -34.4
   950.676    923.738  -0.0242     6.70 000  0.03    1.101    0.092     2.46     2.23 -40.8
   226.441    967.543   0.8376     6.27 000  0.00    1.064    0.060     1.86     1.75  -9.0
  1599.000   1111.004   1.7033     5.38 000  0.00    1.536    0.349     1.12     0.73  -0.4
  2141.446   1200.414   0.4114     9.27 000  0.00    1.038    0.037     2.83     2.72 -31.5
    34.435   1212.863   0.9213     7.19 000  0.00    1.037    0.036     1.78     1.71  43.6
   779.643   1251.127   1.3195     6.50 000  0.00    1.041    0.039     1.37     1.32 -53.1
   777.947   1268.800   1.1370     7.39 000  0.00    1.182    0.154     1.72     1.46 -78.1
   838.422   1288.652   1.0099     7.13 000  0.00    1.196    0.164     1.85     1.55 -38.0
  2576.793   1312.727   1.1714    10.65 000  0.00    1.119    0.106     2.29     2.04 -54.6
  1603.781   1315.312   0.8392     8.62 000  0.00    1.200    0.166     2.31     1.93 -37.5
   788.178   1352.930  -0.9152     6.68 000  0.24    1.033    0.032     2.84     2.75 -19.8
  2586.402   1373.964   1.5284    10.18 000  0.00    1.483    0.326     2.07     1.40 -39.6
  1121.955   1391.216   1.3365     6.89 000  0.00    1.289    0.224     1.53     1.19 -62.5
   151.853   1408.756   1.1537     8.34 000  0.00    1.147    0.128     1.78     1.55 -78.1
   783.647   1430.915   1.2187     7.17 000  0.00    1.125    0.111     1.56     1.39 -48.8
   842.330   1449.195   0.0705     6.81 000  0.02    1.064    0.060     2.39     2.25 -46.5
  1469.948   1449.770   0.6110     8.31 000  0.00    1.082    0.076     2.48     2.29 -22.6
  1333.445   1462.581   0.8197     7.72 000  0.00    1.130    0.115     2.15     1.90 -56.9
   410.860   1483.668   0.5159     6.54 000  0.00    1.110    0.099     2.11     1.90 -49.2
  1003.831   1491.112   0.7481     7.01 000  0.00    1.145    0.127     2.07     1.80 -37.4
  2412.382   1498.935   0.9236    11.46 000  0.00    1.171    0.146     2.68     2.29 -52.6
  1012.957   1958.319  -0.3365     7.46 000  0.04    1.071    0.066     2.85     2.66  83.6
   109.212   2503.228   1.1695     7.29 024  0.02    2.900    0.655     2.08     0.72   1.6
  1351.022   2441.721   1.1500    10.96 000  0.00    1.152    0.132     2.24     1.94 -70.3
   136.622   2387.521   0.0239     8.30 000  0.01    1.085    0.078     2.86     2.63 -67.8
  3196.576   2365.775  -3.6561    21.14 000  0.84    1.273    0.214     7.98     6.27  17.4
  1953.360   2385.093   0.8774    10.13 000  0.00    1.095    0.087     2.55     2.33 -50.2
  1047.728   2377.160   1.0012    11.55 000  0.00    1.320    0.242     2.46     1.87 -55.2
  1687.173   2356.618  -0.2503     9.72 000  0.22    1.075    0.070     3.49     3.24  73.2
    70.341   2355.644   0.4588     8.26 000  0.00    1.016    0.015     2.54     2.50 -29.7
    28.666   2323.437  -4.4574    10.01 000  0.84    1.110    0.099     5.01     4.51  55.2
    85.273   2312.089   1.5819     5.38 000  0.00    1.126    0.112     1.23     1.09 -65.5
   493.051   2272.798   0.0151     8.03 000  0.00    1.060    0.056     2.77     2.61 -64.9
  2878.638   2270.746   1.5033    11.49 000  0.00    1.491    0.329     2.34     1.57 -63.1
   233.211   2272.478   1.6491     5.13 000  0.00    1.395    0.283     1.02     0.73  88.8
   458.836   2254.529   1.5567     7.20 000  0.00    1.707    0.414     1.57     0.92 -84.9
  1205.570   2218.978   0.7652     8.88 000  0.00    1.172    0.147     2.48     2.11 -72.7
   658.668   2219.711   1.0869     9.02 000  0.00    1.297    0.229     2.02     1.56 -60.4
   139.190   2159.878  -0.9319    10.61 000  0.06    1.312    0.238     4.13     3.15 -87.5
   292.177   2167.711   1.4113     6.04 000  0.00    1.229    0.186     1.39     1.13 -83.7
   473.165   2154.641  -1.7293     8.23 000  0.19    1.084    0.078     3.74     3.45  44.7
   669.998   2156.648   0.7277     8.28 000  0.00    1.273    0.215     2.41     1.89 -73.3
  1652.258   2157.769   1.6221     6.54 000  0.00    1.310    0.237     1.25     0.96  72.4
   305.478   2145.254   0.5280     7.52 000  0.00    1.064    0.060     2.31     2.17 -62.1
    12.611   2134.456   1.4114     7.12 000  0.00    1.449    0.310     1.56     1.08 -72.5
  1178.813   2100.417   0.8888     8.36 000  0.00    1.165    0.142     2.16     1.85 -49.6
  1232.680   2089.316  -2.1420     8.68 000  0.56    1.110    0.099     4.06     3.65  37.0
   218.140   2092.351   0.3730     7.58 000  0.00    1.060    0.057     2.35     2.22 -72.3
  2762.806   2072.144   0.4185    11.78 000  0.00    1.107    0.097     3.52     3.18 -29.6
   224.129   2030.941  -4.5974     8.24 000  0.84    1.128    0.114     4.56     4.04  47.0
   850.198   2044.024   0.4263     7.26 000  0.00    1.064    0.060     2.32     2.18 -37.3
    31.243   2027.337   0.5961     7.66 000  0.00    1.106    0.096     2.32     2.10  83.0
  2348.569   1987.682  -0.0573    10.58 000  0.00    1.085    0.078     3.55     3.28 -26.6
  1404.978   1927.904  -1.2224     8.45 000  0.10    1.066    0.062     3.57     3.35  37.7
   105.247   1920.282   0.5198     7.61 000  0.00    1.054    0.051     2.34     2.22 -58.5
   447.386   1839.240   1.4491     6.58 000  0.00    1.389    0.280     1.45     1.04 -18.5
  3097.188   1833.567   1.3048    14.05 000  0.00    1.307    0.235     2.68     2.05 -58.0
   728.143   1830.350   0.5153     7.21 000  0.00    1.047    0.045     2.25     2.15 -57.8
  1472.749   1811.119  -2.9280     9.40 000  0.82    1.216    0.177     4.76     3.92  28.0
  2289.222   1802.343   1.6345     7.63 000  0.00    1.798    0.444     1.71     0.95 -80.4
  1785.950   1767.311  -1.9484     9.71 000  0.59    1.129    0.115     4.38     3.87  10.0
  2758.375   1758.550   1.3315    11.14 000  0.00    1.442    0.306     2.23     1.55 -48.9
  3111.913   1706.680   1.2770    13.54 000  0.00    1.353    0.261     2.63     1.94 -54.5
  1897.863   1577.091   1.5028     7.64 000  0.00    1.103    0.094     1.34     1.22 -42.1
  1271.288   1574.477   1.3026     5.96 000  0.00    1.147    0.128     1.60     1.39 -59.9
  1686.564   1558.397   0.2310     8.43 000  0.00    1.038    0.037     2.73     2.63 -37.4
  1658.753   1540.160  -0.0046     8.67 000  0.00    1.016    0.016     2.88     2.83   0.7
  1679.018   1522.571   0.5438     8.65 000  0.00    1.112    0.100     2.58     2.32 -27.1
    74.103   2453.281  -3.4464     9.55 000  0.80    1.123    0.109     4.83     4.30  56.3
    35.372   2460.444  -1.8036     8.83 000  0.15    1.218    0.179     4.55     3.73  59.2
  1418.352   2437.908  -1.2033     9.44 000  0.25    1.083    0.077     3.96     3.66  60.8
   576.018   2390.900   1.0209     9.04 000  0.00    1.316    0.240     2.23     1.69 -75.8
   758.855   2332.170   0.9775     8.03 000  0.00    1.374    0.272     2.18     1.59 -74.3
   269.891   2293.933   1.0154     8.83 000  0.00    1.299    0.230     2.16     1.67 -43.3
   633.972   2300.629   1.0108     8.02 000  0.00    1.250    0.200     2.10     1.68 -64.3
  1654.746   2285.499   0.9616    10.55 000  0.00    1.239    0.193     2.54     2.05 -62.5
  1434.590   1748.112  -1.4345     8.40 000  0.56    1.088    0.081     3.64     3.35  22.5
  3087.549   1662.537   1.1422    13.91 000  0.00    1.340    0.254     2.92     2.18 -45.1
  1602.418   1624.600   1.0640     8.80 000  0.00    1.061    0.057     1.97     1.86 -59.3
  1182.172   1582.917   1.6649     5.23 000  0.00    1.320    0.242     1.01     0.76 -26.7
   219.778   2458.594   1.0975    10.87 000  0.00    1.212    0.175     2.22     1.83 -63.0
   222.353   2428.855  -0.8889     8.71 000  0.10    1.055    0.052     3.52     3.34  73.5
   315.387   2437.365   1.5235     7.68 000  0.00    1.522    0.343     1.59     1.04 -55.2
  1295.121   2396.156   1.3782    10.08 000  0.00    1.309    0.236     1.93     1.47 -50.0
   227.077   2398.345   0.6646     8.63 000  0.00    1.030    0.029     2.39     2.32 -69.0
   157.317   2355.547  -1.2812     8.56 000  0.16    1.086    0.079     3.72     3.43  56.6
  1977.800   1718.887   1.3495    10.14 000  0.00    1.336    0.252     1.96     1.47 -49.9
   229.765   2226.426  -2.4503     8.46 000  0.13    1.107    0.097     4.09     3.69  49.5
   643.622   2257.358   1.2922     9.28 000  0.00    1.387    0.279     1.83     1.32 -49.2
   528.181   1715.270   0.2159     6.90 000  0.01    1.067    0.063     2.35     2.20 -67.3
  1976.569   1769.862   0.8791     9.97 000  0.00    1.101    0.091     2.43     2.21 -32.4
    70.065   2176.704  -1.9037     8.21 000  0.12    1.105    0.095     3.82     3.45  44.5
  1099.747   2184.194   1.4105     8.24 000  0.00    1.322    0.244     1.58     1.20 -59.0
  1572.455   1852.319   0.9889     9.33 000  0.00    1.147    0.128     2.32     2.02 -37.3
    25.723   2113.704   1.6580     5.20 000  0.00    1.252    0.201     0.98     0.78 -44.7
  3085.815   1865.814   1.1129    14.43 000  0.00    1.467    0.318     3.13     2.13 -47.1
